Frequency [Hz];Amplitude;
0.000000; 0.003747
8.331759; 0.006645
16.663518; 0.004895
24.995277; 0.000849
33.327036; 0.000475
41.658795; 0.000341
49.990554; 0.000057
58.322312; 0.000071
66.654071; 0.000071
74.985830; 0.000011
83.317589; 0.000049
91.649348; 0.000050
99.981107; 0.000017
108.312866; 0.000030
116.644625; 0.000009
124.976384; 0.000001
133.308143; 0.000002
141.639902; 0.000007
149.971661; 0.000008
158.303420; 0.000025
166.635179; 0.000019
174.966937; 0.000032
183.298696; 0.000297
191.630455; 0.000418
199.962214; 0.000212
208.293973; 0.000381
216.625732; 0.000322
224.957491; 0.000066
233.289250; 0.000162
241.621009; 0.000132
249.952768; 0.000041
258.284527; 0.000092
266.616286; 0.000069
274.948045; 0.000008
283.279804; 0.000007
291.611562; 0.000019
299.943321; 0.000011
308.275080; 0.000027
316.606839; 0.000050
324.938598; 0.000035
333.270357; 0.000032
341.602116; 0.000073
349.933875; 0.000045
358.265634; 0.000090
366.597393; 0.000213
374.929152; 0.000117
383.260911; 0.000087
391.592670; 0.000106
399.924428; 0.000040
408.256187; 0.000045
416.587946; 0.000109
424.919705; 0.000101
433.251464; 0.000164
441.583223; 0.000180
449.914982; 0.000045
458.246741; 0.000045
466.578500; 0.000018
474.910259; 0.000011
483.242018; 0.000042
491.573777; 0.000043
499.905536; 0.000020
508.237295; 0.000019
516.569053; 0.000065
524.900812; 0.000062
533.232571; 0.000029
541.564330; 0.000121
549.896089; 0.000105
558.227848; 0.000171
566.559607; 0.000398
574.891366; 0.000214
583.223125; 0.004394
591.554884; 0.009471
599.886643; 0.005088
608.218402; 0.000303
616.550161; 0.000482
624.881920; 0.000199
633.213678; 0.000003
641.545437; 0.000008
649.877196; 0.000016
658.208955; 0.000033
666.540714; 0.000021
674.872473; 0.000005
683.204232; 0.000007
691.535991; 0.000005
699.867750; 0.000004
708.199509; 0.000006
716.531268; 0.000039
724.863027; 0.000068
733.194786; 0.000035
741.526544; 0.000015
749.858303; 0.000010
758.190062; 0.000034
766.521821; 0.000093
774.853580; 0.000070
783.185339; 0.000188
791.517098; 0.000542
799.848857; 0.000410
808.180616; 0.000501
816.512375; 0.000880
824.844134; 0.000410
833.175893; 0.000148
841.507652; 0.000200
849.839411; 0.000067
858.171169; 0.000003
866.502928; 0.000003
874.834687; 0.000016
883.166446; 0.000017
891.498205; 0.000040
899.829964; 0.000034
908.161723; 0.000012
916.493482; 0.000038
924.825241; 0.000034
933.157000; 0.000010
941.488759; 0.000057
949.820518; 0.000101
958.152277; 0.000050
966.484036; 0.000120
974.815794; 0.000123
983.147553; 0.000027
991.479312; 0.000075
999.811071; 0.000109
1008.142830; 0.000083
1016.474589; 0.000151
1024.806348; 0.000053
1033.138107; 0.000038
1041.469866; 0.000039
1049.801625; 0.000013
1058.133384; 0.000026
1066.465143; 0.000025
1074.796902; 0.000008
1083.128660; 0.000020
1091.460419; 0.000038
1099.792178; 0.000013
1108.123937; 0.000007
1116.455696; 0.000005
1124.787455; 0.000005
1133.119214; 0.000008
1141.450973; 0.000004
1149.782732; 0.000010
1158.114491; 0.000038
1166.446250; 0.000058
1174.778009; 0.000133
1183.109768; 0.000901
1191.441527; 0.004872
1199.773285; 0.005135
1208.105044; 0.001185
1216.436803; 0.001912
1224.768562; 0.001715
1233.100321; 0.000304
1241.432080; 0.000235
1249.763839; 0.000199
1258.095598; 0.000031
1266.427357; 0.000043
1274.759116; 0.000031
1283.090875; 0.000009
1291.422634; 0.000036
1299.754393; 0.000050
1308.086152; 0.000019
1316.417910; 0.000032
1324.749669; 0.000031
1333.081428; 0.000008
1341.413187; 0.000040
1349.744946; 0.000079
1358.076705; 0.000059
1366.408464; 0.000053
1374.740223; 0.000043
1383.071982; 0.000064
1391.403741; 0.000276
1399.735500; 0.000209
1408.067259; 0.000167
1416.399018; 0.000603
1424.730776; 0.000550
1433.062535; 0.000102
1441.394294; 0.000110
1449.726053; 0.000100
1458.057812; 0.000004
1466.389571; 0.000058
1474.721330; 0.000065
1483.053089; 0.000016
1491.384848; 0.000038
1499.716607; 0.000023
1508.048366; 0.000004
1516.380125; 0.000003
1524.711884; 0.000025
1533.043643; 0.000026
1541.375401; 0.000047
1549.707160; 0.000108
1558.038919; 0.000067
1566.370678; 0.000126
1574.702437; 0.000306
1583.034196; 0.000183
1591.365955; 0.000246
1599.697714; 0.000380
1608.029473; 0.000162
1616.361232; 0.000289
1624.692991; 0.000368
1633.024750; 0.000126
1641.356509; 0.000105
1649.688268; 0.000104
1658.020026; 0.000027
1666.351785; 0.000060
1674.683544; 0.000037
1683.015303; 0.000012
1691.347062; 0.000017
1699.678821; 0.000030
1708.010580; 0.000032
1716.342339; 0.000019
1724.674098; 0.000083
1733.005857; 0.000088
1741.337616; 0.000040
1749.669375; 0.000177
1758.001134; 0.000118
1766.332892; 0.000294
1774.664651; 0.000755
1782.996410; 0.000833
1791.328169; 0.044791
1799.659928; 0.095378
1807.991687; 0.050696
1816.323446; 0.001107
1824.655205; 0.001636
1832.986964; 0.000726
1841.318723; 0.000175
1849.650482; 0.000211
1857.982241; 0.000107
1866.314000; 0.000079
1874.645759; 0.000091
1882.977517; 0.000030
1891.309276; 0.000022
1899.641035; 0.000052
1907.972794; 0.000029
1916.304553; 0.000014
1924.636312; 0.000015
1932.968071; 0.000027
1941.299830; 0.000013
1949.631589; 0.000031
1957.963348; 0.000033
1966.295107; 0.000030
1974.626866; 0.000185
1982.958625; 0.000213
1991.290384; 0.000293
1999.622142; 0.000668
2007.953901; 0.000368
2016.285660; 0.000008
2024.617419; 0.000063
2032.949178; 0.000048
2041.280937; 0.000068
2049.612696; 0.000090
2057.944455; 0.000030
2066.276214; 0.000072
2074.607973; 0.000064
2082.939732; 0.000020
2091.271491; 0.000014
2099.603250; 0.000013
2107.935009; 0.000042
2116.266767; 0.000017
2124.598526; 0.000040
2132.930285; 0.000061
2141.262044; 0.000023
2149.593803; 0.000022
2157.925562; 0.000074
2166.257321; 0.000041
2174.589080; 0.000232
2182.920839; 0.000307
2191.252598; 0.000170
2199.584357; 0.000694
2207.916116; 0.000738
2216.247875; 0.000207
2224.579633; 0.000168
2232.911392; 0.000032
2241.243151; 0.000007
2249.574910; 0.000048
2257.906669; 0.000059
2266.238428; 0.000033
2274.570187; 0.000047
2282.901946; 0.000072
2291.233705; 0.000094
2299.565464; 0.000067
2307.897223; 0.000154
2316.228982; 0.000168
2324.560741; 0.000240
2332.892500; 0.000323
2341.224258; 0.000466
2349.556017; 0.000843
2357.887776; 0.001085
2366.219535; 0.002285
2374.551294; 0.004937
2382.883053; 0.014577
2391.214812; 0.096015
2399.546571; 0.522838
2407.878330; 0.547484
2416.210089; 0.118680
2424.541848; 0.015994
2432.873607; 0.005207
2441.205366; 0.002405
2449.537125; 0.001177
2457.868883; 0.000803
2466.200642; 0.000502
2474.532401; 0.000324
2482.864160; 0.000241
2491.195919; 0.000160
2499.527678; 0.000163
2507.859437; 0.000103
2516.191196; 0.000071
2524.522955; 0.000073
2532.854714; 0.000053
2541.186473; 0.000063
2549.518232; 0.000089
2557.849991; 0.000096
2566.181749; 0.000100
2574.513508; 0.000141
2582.845267; 0.000220
2591.177026; 0.000154
2599.508785; 0.000203
2607.840544; 0.000156
2616.172303; 0.000117
2624.504062; 0.000423
2632.835821; 0.000395
2641.167580; 0.000087
2649.499339; 0.000117
2657.831098; 0.000110
2666.162857; 0.000012
2674.494616; 0.000040
2682.826374; 0.000041
2691.158133; 0.000024
2699.489892; 0.000049
2707.821651; 0.000042
2716.153410; 0.000008
2724.485169; 0.000030
2732.816928; 0.000018
2741.148687; 0.000030
2749.480446; 0.000039
2757.812205; 0.000119
2766.143964; 0.000063
2774.475723; 0.000080
2782.807482; 0.000158
2791.139241; 0.000073
2799.470999; 0.000253
2807.802758; 0.000668
2816.134517; 0.000424
2824.466276; 0.000143
2832.798035; 0.000073
2841.129794; 0.000014
2849.461553; 0.000007
2857.793312; 0.000004
2866.125071; 0.000012
2874.456830; 0.000050
2882.788589; 0.000038
2891.120348; 0.000009
2899.452107; 0.000005
2907.783865; 0.000025
2916.115624; 0.000003
2924.447383; 0.000015
2932.779142; 0.000022
2941.110901; 0.000023
2949.442660; 0.000064
2957.774419; 0.000007
2966.106178; 0.000109
2974.437937; 0.000170
2982.769696; 0.000463
2991.101455; 0.001652
2999.433214; 0.176406
3007.764973; 0.368282
3016.096732; 0.192092
3024.428490; 0.001855
3032.760249; 0.000909
3041.092008; 0.000350
3049.423767; 0.000183
3057.755526; 0.000105
3066.087285; 0.000085
3074.419044; 0.000074
3082.750803; 0.000056
3091.082562; 0.000018
3099.414321; 0.000006
3107.746080; 0.000057
3116.077839; 0.000046
3124.409598; 0.000017
3132.741357; 0.000021
3141.073115; 0.000008
3149.404874; 0.000012
3157.736633; 0.000019
3166.068392; 0.000019
3174.400151; 0.000067
3182.731910; 0.000153
3191.063669; 0.000073
3199.395428; 0.000679
3207.727187; 0.001327
3216.058946; 0.000639
3224.390705; 0.000123
3232.722464; 0.000158
3241.054223; 0.000049
3249.385981; 0.000012
3257.717740; 0.000012
3266.049499; 0.000006
3274.381258; 0.000050
3282.713017; 0.000074
3291.044776; 0.000026
3299.376535; 0.000018
3307.708294; 0.000019
3316.040053; 0.000016
3324.371812; 0.000019
3332.703571; 0.000027
3341.035330; 0.000046
3349.367089; 0.000017
3357.698848; 0.000027
3366.030606; 0.000024
3374.362365; 0.000035
3382.694124; 0.000339
3391.025883; 0.000426
3399.357642; 0.000122
3407.689401; 0.000158
3416.021160; 0.000047
3424.352919; 0.000114
3432.684678; 0.000237
3441.016437; 0.000167
3449.348196; 0.000023
3457.679955; 0.000017
3466.011714; 0.000005
3474.343473; 0.000044
3482.675231; 0.000045
3491.006990; 0.000023
3499.338749; 0.000018
3507.670508; 0.000008
3516.002267; 0.000038
3524.334026; 0.000011
3532.665785; 0.000051
3540.997544; 0.000069
3549.329303; 0.000065
3557.661062; 0.000203
3565.992821; 0.000078
3574.324580; 0.000341
3582.656339; 0.001272
3590.988097; 0.002211
3599.319856; 0.010315
3607.651615; 0.054494
3615.983374; 0.056083
3624.315133; 0.011799
3632.646892; 0.001753
3640.978651; 0.000739
3649.310410; 0.000330
3657.642169; 0.000072
3665.973928; 0.000210
3674.305687; 0.000051
3682.637446; 0.000076
3690.969205; 0.000066
3699.300964; 0.000008
3707.632722; 0.000069
3715.964481; 0.000028
3724.296240; 0.000014
3732.627999; 0.000020
3740.959758; 0.000016
3749.291517; 0.000017
3757.623276; 0.000052
3765.955035; 0.000139
3774.286794; 0.000098
3782.618553; 0.000028
3790.950312; 0.000036
3799.282071; 0.000263
3807.613830; 0.001436
3815.945589; 0.001505
3824.277347; 0.000340
3832.609106; 0.000259
3840.940865; 0.000232
3849.272624; 0.000066
3857.604383; 0.000137
3865.936142; 0.000096
3874.267901; 0.000017
3882.599660; 0.000017
3890.931419; 0.000006
3899.263178; 0.000010
3907.594937; 0.000028
3915.926696; 0.000028
3924.258455; 0.000013
3932.590213; 0.000021
3940.921972; 0.000032
3949.253731; 0.000018
3957.585490; 0.000045
3965.917249; 0.000177
3974.249008; 0.000152
3982.580767; 0.000114
3990.912526; 0.000325
3999.244285; 0.000213
4007.576044; 0.000274
4015.907803; 0.000522
4024.239562; 0.000246
4032.571321; 0.000018
4040.903080; 0.000010
4049.234838; 0.000007
4057.566597; 0.000036
4065.898356; 0.000048
4074.230115; 0.000022
4082.561874; 0.000039
4090.893633; 0.000028
4099.225392; 0.000014
4107.557151; 0.000011
4115.888910; 0.000045
4124.220669; 0.000042
4132.552428; 0.000030
4140.884187; 0.000094
4149.215946; 0.000064
4157.547705; 0.000107
4165.879463; 0.000323
4174.211222; 0.000257
4182.542981; 0.000923
4190.874740; 0.002264
4199.206499; 0.001340
4207.538258; 0.005454
4215.870017; 0.011082
4224.201776; 0.005633
4232.533535; 0.000190
4240.865294; 0.000273
4249.197053; 0.000115
4257.528812; 0.000007
4265.860571; 0.000023
4274.192329; 0.000023
4282.524088; 0.000011
4290.855847; 0.000033
4299.187606; 0.000029
4307.519365; 0.000017
4315.851124; 0.000014
4324.182883; 0.000027
4332.514642; 0.000014
4340.846401; 0.000005
4349.178160; 0.000013
4357.509919; 0.000018
4365.841678; 0.000034
4374.173437; 0.000036
4382.505196; 0.000085
4390.836954; 0.000227
4399.168713; 0.000126
4407.500472; 0.000738
4415.832231; 0.001618
4424.163990; 0.000899
4432.495749; 0.000127
4440.827508; 0.000161
4449.159267; 0.000051
4457.491026; 0.000013
4465.822785; 0.000020
4474.154544; 0.000008
4482.486303; 0.000029
4490.818062; 0.000059
4499.149821; 0.000043
4507.481579; 0.000020
4515.813338; 0.000040
4524.145097; 0.000020
4532.476856; 0.000020
4540.808615; 0.000016
4549.140374; 0.000028
4557.472133; 0.000014
4565.803892; 0.000015
4574.135651; 0.000048
4582.467410; 0.000025
4590.799169; 0.000028
4599.130928; 0.000054
4607.462687; 0.000054
4615.794445; 0.000053
4624.126204; 0.000057
4632.457963; 0.000086
4640.789722; 0.000190
4649.121481; 0.000128
4657.453240; 0.000043
4665.784999; 0.000066
4674.116758; 0.000018
4682.448517; 0.000020
4690.780276; 0.000034
4699.112035; 0.000010
4707.443794; 0.000007
4715.775553; 0.000011
4724.107312; 0.000024
4732.439070; 0.000019
4740.770829; 0.000010
4749.102588; 0.000023
4757.434347; 0.000023
4765.766106; 0.000044
4774.097865; 0.000026
4782.429624; 0.000061
4790.761383; 0.000085
4799.093142; 0.000122
4807.424901; 0.000645
4815.756660; 0.003128
4824.088419; 0.003113
4832.420178; 0.000614
4840.751937; 0.000299
4849.083695; 0.000222
4857.415454; 0.000043
4865.747213; 0.000033
4874.078972; 0.000056
4882.410731; 0.000011
4890.742490; 0.000015
4899.074249; 0.000029
4907.406008; 0.000014
4915.737767; 0.000032
4924.069526; 0.000043
4932.401285; 0.000036
4940.733044; 0.000023
4949.064803; 0.000065
4957.396561; 0.000031
4965.728320; 0.000031
4974.060079; 0.000052
4982.391838; 0.000036
4990.723597; 0.000188
4999.055356; 0.000241
5007.387115; 0.000234
5015.718874; 0.001221
5024.050633; 0.001259
5032.382392; 0.000268
5040.714151; 0.000196
5049.045910; 0.000155
5057.377669; 0.000022
5065.709428; 0.000088
5074.041186; 0.000056
5082.372945; 0.000015
5090.704704; 0.000041
5099.036463; 0.000022
5107.368222; 0.000004
5115.699981; 0.000002
5124.031740; 0.000015
5132.363499; 0.000026
5140.695258; 0.000013
5149.027017; 0.000061
5157.358776; 0.000062
5165.690535; 0.000043
5174.022294; 0.000133
5182.354053; 0.000085
5190.685811; 0.000214
5199.017570; 0.000528
5207.349329; 0.000303
5215.681088; 0.000362
5224.012847; 0.000508
5232.344606; 0.000180
5240.676365; 0.000070
5249.008124; 0.000025
5257.339883; 0.000055
5265.671642; 0.000082
5274.003401; 0.000059
5282.335160; 0.000004
5290.666919; 0.000002
5298.998677; 0.000003
5307.330436; 0.000019
5315.662195; 0.000015
5323.993954; 0.000033
5332.325713; 0.000056
5340.657472; 0.000030
5348.989231; 0.000106
5357.320990; 0.000090
5365.652749; 0.000106
5373.984508; 0.000294
5382.316267; 0.000218
5390.648026; 0.002244
5398.979785; 0.005476
5407.311544; 0.003309
5415.643302; 0.002323
5423.975061; 0.004728
5432.306820; 0.002385
5440.638579; 0.000244
5448.970338; 0.000398
5457.302097; 0.000161
5465.633856; 0.000089
5473.965615; 0.000110
5482.297374; 0.000042
5490.629133; 0.000024
5498.960892; 0.000063
5507.292651; 0.000044
5515.624410; 0.000033
5523.956169; 0.000046
5532.287927; 0.000016
5540.619686; 0.000032
5548.951445; 0.000060
5557.283204; 0.000067
5565.614963; 0.000034
5573.946722; 0.000046
5582.278481; 0.000020
5590.610240; 0.000089
5598.941999; 0.000221
5607.273758; 0.000127
5615.605517; 0.000635
5623.937276; 0.001249
5632.269035; 0.000599
5640.600794; 0.000078
5648.932552; 0.000121
5657.264311; 0.000050
5665.596070; 0.000026
5673.927829; 0.000053
5682.259588; 0.000018
5690.591347; 0.000014
5698.923106; 0.000010
5707.254865; 0.000029
5715.586624; 0.000014
5723.918383; 0.000037
5732.250142; 0.000036
5740.581901; 0.000015
5748.913660; 0.000017
5757.245418; 0.000041
5765.577177; 0.000019
5773.908936; 0.000022
5782.240695; 0.000019
5790.572454; 0.000160
5798.904213; 0.000782
5807.235972; 0.000838
5815.567731; 0.000206
5823.899490; 0.000311
5832.231249; 0.000187
5840.563008; 0.000030
5848.894767; 0.000025
5857.226526; 0.000016
5865.558285; 0.000027
5873.890043; 0.000060
5882.221802; 0.000023
5890.553561; 0.000014
5898.885320; 0.000019
5907.217079; 0.000020
5915.548838; 0.000017
5923.880597; 0.000026
5932.212356; 0.000071
5940.544115; 0.000051
5948.875874; 0.000091
5957.207633; 0.000138
5965.539392; 0.000096
5973.871151; 0.000382
5982.202910; 0.000552
5990.534668; 0.000894
5998.866427; 0.005953
6007.198186; 0.006911
6015.529945; 0.001779
6023.861704; 0.001749
6032.193463; 0.001704
6040.525222; 0.000349
6048.856981; 0.000134
6057.188740; 0.000154
6065.520499; 0.000041
6073.852258; 0.000072
6082.184017; 0.000052
6090.515776; 0.000015
6098.847534; 0.000047
6107.179293; 0.000029
6115.511052; 0.000005
6123.842811; 0.000010
6132.174570; 0.000004
6140.506329; 0.000018
6148.838088; 0.000021
6157.169847; 0.000082
6165.501606; 0.000069
6173.833365; 0.000129
6182.165124; 0.000235
6190.496883; 0.000139
6198.828642; 0.000466
6207.160401; 0.000590
6215.492159; 0.000227
6223.823918; 0.000552
6232.155677; 0.000548
6240.487436; 0.000130
6248.819195; 0.000182
6257.150954; 0.000126
6265.482713; 0.000031
6273.814472; 0.000015
6282.146231; 0.000019
6290.477990; 0.000010
6298.809749; 0.000043
6307.141508; 0.000039
6315.473267; 0.000018
6323.805026; 0.000009
6332.136784; 0.000008
6340.468543; 0.000021
6348.800302; 0.000017
6357.132061; 0.000062
6365.463820; 0.000066
6373.795579; 0.000052
6382.127338; 0.000197
6390.459097; 0.000160
6398.790856; 0.000477
6407.122615; 0.001036
6415.454374; 0.000567
6423.786133; 0.000108
6432.117892; 0.000058
6440.449650; 0.000042
6448.781409; 0.000071
6457.113168; 0.000027
6465.444927; 0.000035
6473.776686; 0.000033
6482.108445; 0.000020
6490.440204; 0.000002
6498.771963; 0.000002
6507.103722; 0.000002
6515.435481; 0.000008
6523.767240; 0.000018
6532.098999; 0.000018
6540.430758; 0.000023
6548.762517; 0.000028
6557.094275; 0.000013
6565.426034; 0.000033
6573.757793; 0.000077
6582.089552; 0.000100
6590.421311; 0.000148
6598.753070; 0.003455
6607.084829; 0.008259
6615.416588; 0.004875
6623.748347; 0.000350
6632.080106; 0.000602
6640.411865; 0.000297
6648.743624; 0.000025
6657.075383; 0.000058
6665.407142; 0.000037
6673.738900; 0.000024
6682.070659; 0.000031
6690.402418; 0.000007
6698.734177; 0.000009
6707.065936; 0.000016
6715.397695; 0.000028
6723.729454; 0.000014
6732.061213; 0.000022
6740.392972; 0.000002
6748.724731; 0.000009
6757.056490; 0.000070
6765.388249; 0.000066
6773.720008; 0.000004
6782.051766; 0.000047
6790.383525; 0.000054
6798.715284; 0.000131
6807.047043; 0.000426
6815.378802; 0.000350
6823.710561; 0.000127
6832.042320; 0.000267
6840.374079; 0.000121
6848.705838; 0.000062
6857.037597; 0.000088
6865.369356; 0.000038
6873.701115; 0.000067
6882.032874; 0.000086
6890.364633; 0.000024
6898.696391; 0.000040
6907.028150; 0.000036
6915.359909; 0.000025
6923.691668; 0.000031
6932.023427; 0.000018
6940.355186; 0.000049
6948.686945; 0.000025
6957.018704; 0.000020
6965.350463; 0.000035
6973.682222; 0.000026
6982.013981; 0.000142
6990.345740; 0.000191
6998.677499; 0.000066
7007.009258; 0.000474
7015.341016; 0.000605
7023.672775; 0.000178
7032.004534; 0.000280
7040.336293; 0.000153
7048.668052; 0.000068
7056.999811; 0.000134
7065.331570; 0.000066
7073.663329; 0.000033
7081.995088; 0.000050
7090.326847; 0.000020
7098.658606; 0.000014
7106.990365; 0.000003
7115.322124; 0.000013
7123.653882; 0.000013
7131.985641; 0.000030
7140.317400; 0.000048
7148.649159; 0.000062
7156.980918; 0.000117
7165.312677; 0.000030
7173.644436; 0.000190
7181.976195; 0.000560
7190.307954; 0.001144
7198.639713; 0.005528
7206.971472; 0.036177
7215.303231; 0.041474
7223.634990; 0.010401
7231.966749; 0.001781
7240.298507; 0.001248
7248.630266; 0.000344
7256.962025; 0.000181
7265.293784; 0.000261
7273.625543; 0.000060
7281.957302; 0.000102
7290.289061; 0.000084
7298.620820; 0.000016
7306.952579; 0.000067
7315.284338; 0.000049
7323.616097; 0.000023
7331.947856; 0.000036
7340.279615; 0.000048
7348.611374; 0.000019
7356.943132; 0.000024
7365.274891; 0.000013
7373.606650; 0.000015
7381.938409; 0.000127
7390.270168; 0.000166
7398.601927; 0.000138
7406.933686; 0.000684
7415.265445; 0.000703
7423.597204; 0.000151
7431.928963; 0.000557
7440.260722; 0.000571
7448.592481; 0.000109
7456.924240; 0.000117
7465.255998; 0.000100
7473.587757; 0.000015
7481.919516; 0.000021
7490.251275; 0.000008
7498.583034; 0.000008
7506.914793; 0.000023
7515.246552; 0.000033
7523.578311; 0.000023
7531.910070; 0.000019
7540.241829; 0.000015
7548.573588; 0.000014
7556.905347; 0.000018
7565.237106; 0.000057
7573.568865; 0.000047
7581.900623; 0.000035
7590.232382; 0.000123
7598.564141; 0.000095
7606.895900; 0.000099
7615.227659; 0.000060
7623.559418; 0.000039
7631.891177; 0.000175
7640.222936; 0.000245
7648.554695; 0.000089
7656.886454; 0.000013
7665.218213; 0.000017
7673.549972; 0.000003
7681.881731; 0.000006
7690.213490; 0.000009
7698.545248; 0.000018
7706.877007; 0.000019
7715.208766; 0.000018
7723.540525; 0.000026
7731.872284; 0.000028
7740.204043; 0.000051
7748.535802; 0.000046
7756.867561; 0.000075
7765.199320; 0.000131
7773.531079; 0.000222
7781.862838; 0.000342
7790.194597; 0.000972
7798.526356; 0.001386
7806.858114; 0.040865
7815.189873; 0.094906
7823.521632; 0.054709
7831.853391; 0.001894
7840.185150; 0.000894
7848.516909; 0.000436
7856.848668; 0.000035
7865.180427; 0.000207
7873.512186; 0.000053
7881.843945; 0.000030
7890.175704; 0.000045
7898.507463; 0.000021
7906.839222; 0.000049
7915.170981; 0.000040
7923.502739; 0.000013
7931.834498; 0.000021
7940.166257; 0.000031
7948.498016; 0.000025
7956.829775; 0.000014
7965.161534; 0.000032
7973.493293; 0.000061
7981.825052; 0.000040
7990.156811; 0.000103
7998.488570; 0.000049
8006.820329; 0.000393
8015.152088; 0.000941
8023.483847; 0.000563
8031.815606; 0.000036
8040.147364; 0.000094
8048.479123; 0.000057
8056.810882; 0.000051
8065.142641; 0.000033
8073.474400; 0.000028
8081.806159; 0.000038
8090.137918; 0.000058
8098.469677; 0.000019
8106.801436; 0.000035
8115.133195; 0.000044
8123.464954; 0.000012
8131.796713; 0.000025
8140.128472; 0.000021
8148.460230; 0.000050
8156.791989; 0.000034
8165.123748; 0.000025
8173.455507; 0.000035
8181.787266; 0.000040
8190.119025; 0.000284
8198.450784; 0.000338
8206.782543; 0.000101
8215.114302; 0.000383
8223.446061; 0.000434
8231.777820; 0.000101
8240.109579; 0.000078
8248.441338; 0.000067
8256.773097; 0.000039
8265.104855; 0.000114
8273.436614; 0.000079
8281.768373; 0.000030
8290.100132; 0.000038
8298.431891; 0.000001
8306.763650; 0.000002
8315.095409; 0.000015
8323.427168; 0.000031
8331.758927; 0.000014
8340.090686; 0.000046
8348.422445; 0.000053
8356.754204; 0.000042
8365.085963; 0.000110
8373.417722; 0.000060
8381.749480; 0.000235
8390.081239; 0.000472
8398.412998; 0.001344
8406.744757; 0.008151
8415.076516; 0.051695
8423.408275; 0.058400
8431.740034; 0.014342
8440.071793; 0.001718
8448.403552; 0.000561
8456.735311; 0.000202
8465.067070; 0.000209
8473.398829; 0.000042
8481.730588; 0.000045
8490.062346; 0.000046
8498.394105; 0.000025
8506.725864; 0.000023
8515.057623; 0.000001
8523.389382; 0.000030
8531.721141; 0.000012
8540.052900; 0.000024
8548.384659; 0.000033
8556.716418; 0.000010
8565.048177; 0.000045
8573.379936; 0.000027
8581.711695; 0.000028
8590.043454; 0.000010
8598.375213; 0.000099
8606.706971; 0.000093
8615.038730; 0.000452
8623.370489; 0.000445
8631.702248; 0.000119
8640.034007; 0.000463
8648.365766; 0.000431
8656.697525; 0.000086
8665.029284; 0.000149
8673.361043; 0.000115
8681.692802; 0.000016
8690.024561; 0.000041
8698.356320; 0.000032
8706.688079; 0.000011
8715.019838; 0.000006
8723.351596; 0.000016
8731.683355; 0.000025
8740.015114; 0.000007
8748.346873; 0.000023
8756.678632; 0.000018
8765.010391; 0.000025
8773.342150; 0.000129
8781.673909; 0.000120
8790.005668; 0.000050
8798.337427; 0.000109
8806.669186; 0.000056
8815.000945; 0.000059
8823.332704; 0.000281
8831.664462; 0.000229
8839.996221; 0.000099
8848.327980; 0.000122
8856.659739; 0.000028
8864.991498; 0.000035
8873.323257; 0.000034
8881.655016; 0.000015
8889.986775; 0.000006
8898.318534; 0.000017
8906.650293; 0.000023
8914.982052; 0.000013
8923.313811; 0.000014
8931.645570; 0.000032
8939.977329; 0.000019
8948.309087; 0.000048
8956.640846; 0.000056
8964.972605; 0.000045
8973.304364; 0.000209
8981.636123; 0.000200
8989.967882; 0.000543
8998.299641; 0.001492
9006.631400; 0.001003
9014.963159; 0.002231
9023.294918; 0.005185
9031.626677; 0.002986
9039.958436; 0.000303
9048.290195; 0.000574
9056.621954; 0.000283
9064.953712; 0.000049
9073.285471; 0.000117
9081.617230; 0.000075
9089.948989; 0.000012
9098.280748; 0.000048
9106.612507; 0.000039
9114.944266; 0.000025
9123.276025; 0.000046
9131.607784; 0.000017
9139.939543; 0.000014
9148.271302; 0.000071
9156.603061; 0.000077
9164.934820; 0.000031
9173.266578; 0.000104
9181.598337; 0.000112
9189.930096; 0.000124
9198.261855; 0.000396
9206.593614; 0.000340
9214.925373; 0.000889
9223.257132; 0.002006
9231.588891; 0.001107
9239.920650; 0.000105
9248.252409; 0.000192
9256.584168; 0.000089
9264.915927; 0.000039
9273.247686; 0.000050
9281.579445; 0.000017
9289.911203; 0.000013
9298.242962; 0.000022
9306.574721; 0.000035
9314.906480; 0.000015
9323.238239; 0.000033
9331.569998; 0.000032
9339.901757; 0.000010
9348.233516; 0.000015
9356.565275; 0.000020
9364.897034; 0.000007
9373.228793; 0.000031
9381.560552; 0.000019
9389.892311; 0.000049
9398.224070; 0.000321
9406.555828; 0.000385
9414.887587; 0.000198
9423.219346; 0.000347
9431.551105; 0.000232
9439.882864; 0.000065
9448.214623; 0.000077
9456.546382; 0.000030
9464.878141; 0.000084
9473.209900; 0.000118
9481.541659; 0.000050
9489.873418; 0.000011
9498.205177; 0.000011
9506.536936; 0.000009
9514.868695; 0.000028
9523.200453; 0.000026
9531.532212; 0.000045
9539.863971; 0.000043
9548.195730; 0.000063
9556.527489; 0.000115
9564.859248; 0.000054
9573.191007; 0.000178
9581.522766; 0.000228
9589.854525; 0.000175
9598.186284; 0.001201
9606.518043; 0.001590
9614.849802; 0.001185
9623.181561; 0.006707
9631.513319; 0.007408
9639.845078; 0.001747
9648.176837; 0.000500
9656.508596; 0.000379
9664.840355; 0.000094
9673.172114; 0.000121
9681.503873; 0.000126
9689.835632; 0.000024
9698.167391; 0.000055
9706.499150; 0.000044
9714.830909; 0.000010
9723.162668; 0.000043
9731.494427; 0.000035
9739.826186; 0.000023
9748.157944; 0.000032
9756.489703; 0.000024
9764.821462; 0.000009
9773.153221; 0.000014
9781.484980; 0.000039
9789.816739; 0.000017
9798.148498; 0.000059
9806.480257; 0.000084
9814.812016; 0.000285
9823.143775; 0.001914
9831.475534; 0.002166
9839.807293; 0.000539
9848.139052; 0.000307
9856.470811; 0.000295
9864.802569; 0.000050
9873.134328; 0.000086
9881.466087; 0.000079
9889.797846; 0.000026
9898.129605; 0.000039
9906.461364; 0.000033
9914.793123; 0.000014
9923.124882; 0.000026
9931.456641; 0.000014
9939.788400; 0.000021
9948.120159; 0.000015
9956.451918; 0.000067
9964.783677; 0.000079
9973.115435; 0.000074
9981.447194; 0.000172
9989.778953; 0.000115
9998.110712; 0.000239
10006.442471; 0.000620
10014.774230; 0.000405
10023.105989; 0.000275
10031.437748; 0.000470
10039.769507; 0.000227
10048.101266; 0.000106
10056.433025; 0.000127
10064.764784; 0.000036
10073.096543; 0.000022
10081.428302; 0.000019
10089.760060; 0.000016
10098.091819; 0.000030
10106.423578; 0.000016
10114.755337; 0.000004
10123.087096; 0.000005
10131.418855; 0.000006
10139.750614; 0.000006
10148.082373; 0.000026
10156.414132; 0.000043
10164.745891; 0.000028
10173.077650; 0.000019
10181.409409; 0.000051
10189.741168; 0.000039
10198.072927; 0.000421
10206.404685; 0.001150
10214.736444; 0.000768
10223.068203; 0.001345
10231.399962; 0.002923
10239.731721; 0.001603
10248.063480; 0.000066
10256.395239; 0.000028
10264.726998; 0.000016
10273.058757; 0.000014
10281.390516; 0.000014
10289.722275; 0.000009
10298.054034; 0.000029
10306.385793; 0.000020
10314.717551; 0.000013
10323.049310; 0.000010
10331.381069; 0.000003
10339.712828; 0.000008
10348.044587; 0.000002
10356.376346; 0.000058
10364.708105; 0.000091
10373.039864; 0.000047
10381.371623; 0.000185
10389.703382; 0.000174
10398.035141; 0.000087
10406.366900; 0.000127
10414.698659; 0.000072
10423.030418; 0.000692
10431.362176; 0.001675
10439.693935; 0.000998
10448.025694; 0.000064
10456.357453; 0.000047
10464.689212; 0.000048
10473.020971; 0.000039
10481.352730; 0.000075
10489.684489; 0.000030
10498.016248; 0.000024
10506.348007; 0.000026
10514.679766; 0.000015
10523.011525; 0.000014
10531.343284; 0.000024
10539.675043; 0.000053
10548.006801; 0.000025
10556.338560; 0.000014
10564.670319; 0.000016
10573.002078; 0.000017
10581.333837; 0.000029
10589.665596; 0.000004
10597.997355; 0.000025
10606.329114; 0.000374
10614.660873; 0.000530
10622.992632; 0.000168
10631.324391; 0.000022
10639.656150; 0.000017
10647.987909; 0.000029
10656.319667; 0.000020
10664.651426; 0.000023
10672.983185; 0.000031
10681.314944; 0.000041
10689.646703; 0.000017
10697.978462; 0.000016
10706.310221; 0.000014
10714.641980; 0.000024
10722.973739; 0.000032
10731.305498; 0.000027
10739.637257; 0.000044
10747.969016; 0.000061
10756.300775; 0.000049
10764.632534; 0.000115
10772.964292; 0.000091
10781.296051; 0.000186
10789.627810; 0.000309
10797.959569; 0.000371
10806.291328; 0.003056
10814.623087; 0.003903
10822.954846; 0.001133
10831.286605; 0.000977
10839.618364; 0.000980
10847.950123; 0.000221
10856.281882; 0.000148
10864.613641; 0.000181
10872.945400; 0.000051
10881.277159; 0.000114
10889.608917; 0.000096
10897.940676; 0.000019
10906.272435; 0.000043
10914.604194; 0.000036
10922.935953; 0.000012
10931.267712; 0.000028
10939.599471; 0.000030
10947.931230; 0.000013
10956.262989; 0.000041
10964.594748; 0.000043
10972.926507; 0.000025
10981.258266; 0.000051
10989.590025; 0.000032
10997.921783; 0.000031
11006.253542; 0.000421
11014.585301; 0.000621
11022.917060; 0.000236
11031.248819; 0.000171
11039.580578; 0.000200
11047.912337; 0.000104
11056.244096; 0.000325
11064.575855; 0.000284
11072.907614; 0.000045
11081.239373; 0.000029
11089.571132; 0.000023
11097.902891; 0.000026
11106.234650; 0.000013
11114.566408; 0.000032
11122.898167; 0.000032
11131.229926; 0.000009
11139.561685; 0.000017
11147.893444; 0.000011
11156.225203; 0.000017
11164.556962; 0.000096
11172.888721; 0.000086
11181.220480; 0.000093
11189.552239; 0.000230
11197.883998; 0.000159
11206.215757; 0.000218
11214.547516; 0.000576
11222.879275; 0.000361
11231.211033; 0.000151
11239.542792; 0.000264
11247.874551; 0.000139
11256.206310; 0.000173
11264.538069; 0.000199
11272.869828; 0.000059
11281.201587; 0.000011
11289.533346; 0.000003
11297.865105; 0.000009
11306.196864; 0.000021
11314.528623; 0.000010
11322.860382; 0.000019
11331.192141; 0.000023
11339.523899; 0.000020
11347.855658; 0.000029
11356.187417; 0.000039
11364.519176; 0.000115
11372.850935; 0.000072
11381.182694; 0.000137
11389.514453; 0.000433
11397.846212; 0.000351
11406.177971; 0.000149
11414.509730; 0.000437
11422.841489; 0.000331
11431.173248; 0.000806
11439.505007; 0.001847
11447.836766; 0.001022
11456.168524; 0.000211
11464.500283; 0.000331
11472.832042; 0.000141
11481.163801; 0.000059
11489.495560; 0.000110
11497.827319; 0.000063
11506.159078; 0.000041
11514.490837; 0.000065
11522.822596; 0.000020
11531.154355; 0.000025
11539.486114; 0.000063
11547.817873; 0.000056
11556.149632; 0.000016
11564.481391; 0.000021
11572.813149; 0.000009
11581.144908; 0.000022
11589.476667; 0.000084
11597.808426; 0.000068
11606.140185; 0.000032
11614.471944; 0.000119
11622.803703; 0.000103
11631.135462; 0.000450
11639.467221; 0.001014
11647.798980; 0.000586
11656.130739; 0.000023
11664.462498; 0.000016
11672.794257; 0.000012
11681.126015; 0.000046
11689.457774; 0.000097
11697.789533; 0.000052
11706.121292; 0.000037
11714.453051; 0.000051
11722.784810; 0.000016
11731.116569; 0.000030
11739.448328; 0.000022
11747.780087; 0.000047
11756.111846; 0.000032
11764.443605; 0.000005
11772.775364; 0.000011
11781.107123; 0.000002
11789.438882; 0.000032
11797.770640; 0.000049
11806.102399; 0.000127
11814.434158; 0.000649
11822.765917; 0.000712
11831.097676; 0.000172
11839.429435; 0.000032
11847.761194; 0.000029
11856.092953; 0.000044
11864.424712; 0.000073
11872.756471; 0.000020
11881.088230; 0.000009
11889.419989; 0.000010
11897.751748; 0.000002
11906.083507; 0.000022
11914.415265; 0.000033
11922.747024; 0.000013
11931.078783; 0.000013
11939.410542; 0.000011
11947.742301; 0.000011
11956.074060; 0.000026
11964.405819; 0.000031
11972.737578; 0.000064
11981.069337; 0.000003
11989.401096; 0.000052
11997.732855; 0.000195
12006.064614; 0.000863
12014.396373; 0.007307
12022.728131; 0.009257
12031.059890; 0.002716
12039.391649; 0.000889
12047.723408; 0.000911
12056.055167; 0.000211
12064.386926; 0.000064
12072.718685; 0.000053
12081.050444; 0.000035
12089.382203; 0.000016
12097.713962; 0.000008
12106.045721; 0.000018
12114.377480; 0.000016
12122.709239; 0.000014
12131.040998; 0.000017
12139.372756; 0.000019
12147.704515; 0.000013
12156.036274; 0.000007
12164.368033; 0.000007
12172.699792; 0.000005
12181.031551; 0.000013
12189.363310; 0.000109
12197.695069; 0.000129
12206.026828; 0.000075
12214.358587; 0.000745
12222.690346; 0.000967
12231.022105; 0.000311
12239.353864; 0.000770
12247.685623; 0.000810
12256.017381; 0.000165
12264.349140; 0.000160
12272.680899; 0.000181
12281.012658; 0.000044
12289.344417; 0.000070
12297.676176; 0.000032
12306.007935; 0.000010
12314.339694; 0.000010
12322.671453; 0.000018
12331.003212; 0.000034
12339.334971; 0.000015
12347.666730; 0.000042
12355.998489; 0.000037
12364.330247; 0.000037
12372.662006; 0.000096
12380.993765; 0.000064
12389.325524; 0.000095
12397.657283; 0.000256
12405.989042; 0.000176
12414.320801; 0.000341
12422.652560; 0.000813
12430.984319; 0.000501
12439.316078; 0.000124
12447.647837; 0.000167
12455.979596; 0.000060
12464.311355; 0.000069
12472.643114; 0.000108
12480.974872; 0.000040
12489.306631; 0.000012
12497.638390; 0.000024
12505.970149; 0.000019
12514.301908; 0.000010
12522.633667; 0.000010
12530.965426; 0.000023
12539.297185; 0.000036
12547.628944; 0.000012
12555.960703; 0.000021
12564.292462; 0.000032
12572.624221; 0.000109
12580.955980; 0.000116
12589.287739; 0.000164
12597.619497; 0.000559
12605.951256; 0.000432
12614.283015; 0.003147
12622.614774; 0.008135
12630.946533; 0.005154
12639.278292; 0.000386
12647.610051; 0.000373
12655.941810; 0.000176
12664.273569; 0.000084
12672.605328; 0.000152
12680.937087; 0.000055
12689.268846; 0.000021
12697.600605; 0.000056
12705.932363; 0.000034
12714.264122; 0.000032
12722.595881; 0.000041
12730.927640; 0.000011
12739.259399; 0.000014
12747.591158; 0.000055
12755.922917; 0.000050
12764.254676; 0.000031
12772.586435; 0.000073
12780.918194; 0.000039
12789.249953; 0.000044
12797.581712; 0.000185
12805.913471; 0.000220
12814.245230; 0.000084
12822.576988; 0.000073
12830.908747; 0.000123
12839.240506; 0.000115
12847.572265; 0.000212
12855.904024; 0.000135
12864.235783; 0.000109
12872.567542; 0.000162
12880.899301; 0.000069
12889.231060; 0.000034
12897.562819; 0.000059
12905.894578; 0.000036
12914.226337; 0.000025
12922.558096; 0.000042
12930.889855; 0.000028
12939.221613; 0.000019
12947.553372; 0.000017
12955.885131; 0.000030
12964.216890; 0.000031
12972.548649; 0.000041
12980.880408; 0.000075
12989.212167; 0.000037
12997.543926; 0.000107
13005.875685; 0.000187
13014.207444; 0.000096
13022.539203; 0.000284
13030.870962; 0.000457
13039.202721; 0.000199
13047.534480; 0.000093
13055.866238; 0.000028
13064.197997; 0.000023
13072.529756; 0.000024
13080.861515; 0.000023
13089.193274; 0.000018
13097.525033; 0.000032
13105.856792; 0.000019
13114.188551; 0.000029
13122.520310; 0.000031
13130.852069; 0.000038
13139.183828; 0.000044
13147.515587; 0.000025
13155.847346; 0.000070
13164.179104; 0.000044
13172.510863; 0.000128
13180.842622; 0.000208
13189.174381; 0.000117
13197.506140; 0.000444
13205.837899; 0.000679
13214.169658; 0.000631
13222.501417; 0.004496
13230.833176; 0.005488
13239.164935; 0.001526
13247.496694; 0.000601
13255.828453; 0.000663
13264.160212; 0.000174
13272.491971; 0.000104
13280.823729; 0.000146
13289.155488; 0.000039
13297.487247; 0.000040
13305.819006; 0.000059
13314.150765; 0.000018
13322.482524; 0.000034
13330.814283; 0.000035
13339.146042; 0.000015
13347.477801; 0.000053
13355.809560; 0.000072
13364.141319; 0.000032
13372.473078; 0.000055
13380.804837; 0.000112
13389.136596; 0.000084
13397.468354; 0.000162
13405.800113; 0.000305
13414.131872; 0.000299
13422.463631; 0.001475
13430.795390; 0.001753
13439.127149; 0.000463
13447.458908; 0.000625
13455.790667; 0.000608
13464.122426; 0.000122
13472.454185; 0.000128
13480.785944; 0.000125
13489.117703; 0.000042
13497.449462; 0.000058
13505.781220; 0.000064
13514.112979; 0.000029
13522.444738; 0.000017
13530.776497; 0.000017
13539.108256; 0.000014
13547.440015; 0.000017
13555.771774; 0.000045
13564.103533; 0.000038
13572.435292; 0.000028
13580.767051; 0.000100
13589.098810; 0.000071
13597.430569; 0.000035
13605.762328; 0.000103
13614.094087; 0.000068
13622.425845; 0.000132
13630.757604; 0.000116
13639.089363; 0.000063
13647.421122; 0.000193
13655.752881; 0.000174
13664.084640; 0.000032
13672.416399; 0.000045
13680.748158; 0.000045
13689.079917; 0.000012
13697.411676; 0.000024
13705.743435; 0.000028
13714.075194; 0.000008
13722.406953; 0.000026
13730.738712; 0.000020
13739.070470; 0.000002
13747.402229; 0.000015
13755.733988; 0.000033
13764.065747; 0.000023
13772.397506; 0.000021
13780.729265; 0.000005
13789.061024; 0.000022
13797.392783; 0.000113
13805.724542; 0.000411
13814.056301; 0.000420
13822.388060; 0.004300
13830.719819; 0.010927
13839.051578; 0.006813
13847.383336; 0.000495
13855.715095; 0.000570
13864.046854; 0.000287
13872.378613; 0.000063
13880.710372; 0.000137
13889.042131; 0.000051
13897.373890; 0.000050
13905.705649; 0.000049
13914.037408; 0.000006
13922.369167; 0.000014
13930.700926; 0.000032
13939.032685; 0.000029
13947.364444; 0.000018
13955.696203; 0.000013
13964.027961; 0.000019
13972.359720; 0.000014
13980.691479; 0.000038
13989.023238; 0.000048
13997.354997; 0.000074
14005.686756; 0.000190
14014.018515; 0.000093
14022.350274; 0.000744
14030.682033; 0.001927
14039.013792; 0.001237
14047.345551; 0.000070
14055.677310; 0.000032
14064.009069; 0.000022
14072.340828; 0.000087
14080.672586; 0.000180
14089.004345; 0.000092
14097.336104; 0.000019
14105.667863; 0.000015
14113.999622; 0.000017
14122.331381; 0.000011
14130.663140; 0.000015
14138.994899; 0.000036
14147.326658; 0.000018
14155.658417; 0.000016
14163.990176; 0.000030
14172.321935; 0.000033
14180.653694; 0.000084
14188.985452; 0.000106
14197.317211; 0.000047
14205.648970; 0.000176
14213.980729; 0.000308
14222.312488; 0.000128
14230.644247; 0.000252
14238.976006; 0.000310
14247.307765; 0.000133
14255.639524; 0.000311
14263.971283; 0.000195
14272.303042; 0.000046
14280.634801; 0.000053
14288.966560; 0.000007
14297.298319; 0.000035
14305.630077; 0.000058
14313.961836; 0.000029
14322.293595; 0.000021
14330.625354; 0.000019
14338.957113; 0.000034
14347.288872; 0.000049
14355.620631; 0.000020
14363.952390; 0.000062
14372.284149; 0.000041
14380.615908; 0.000123
14388.947667; 0.000232
14397.279426; 0.000094
14405.611185; 0.000878
14413.942944; 0.001234
14422.274702; 0.000905
14430.606461; 0.006229
14438.938220; 0.007649
14447.269979; 0.002145
14455.601738; 0.000253
14463.933497; 0.000165
14472.265256; 0.000030
14480.597015; 0.000066
14488.928774; 0.000039
14497.260533; 0.000020
14505.592292; 0.000021
14513.924051; 0.000032
14522.255810; 0.000017
14530.587568; 0.000011
14538.919327; 0.000015
14547.251086; 0.000012
14555.582845; 0.000037
14563.914604; 0.000063
14572.246363; 0.000035
14580.578122; 0.000078
14588.909881; 0.000160
14597.241640; 0.000092
14605.573399; 0.000092
14613.905158; 0.000211
14622.236917; 0.000129
14630.568676; 0.000339
14638.900435; 0.000483
14647.232193; 0.000190
14655.563952; 0.000366
14663.895711; 0.000387
14672.227470; 0.000078
14680.559229; 0.000019
14688.890988; 0.000015
14697.222747; 0.000005
14705.554506; 0.000037
14713.886265; 0.000052
14722.218024; 0.000034
14730.549783; 0.000019
14738.881542; 0.000038
14747.213301; 0.000021
14755.545060; 0.000016
14763.876818; 0.000051
14772.208577; 0.000066
14780.540336; 0.000039
14788.872095; 0.000113
14797.203854; 0.000104
14805.535613; 0.000132
14813.867372; 0.000397
14822.199131; 0.000318
14830.530890; 0.000159
14838.862649; 0.000071
14847.194408; 0.000098
14855.526167; 0.000050
14863.857926; 0.000043
14872.189684; 0.000009
14880.521443; 0.000018
14888.853202; 0.000036
14897.184961; 0.000044
14905.516720; 0.000035
14913.848479; 0.000011
14922.180238; 0.000027
14930.511997; 0.000039
14938.843756; 0.000020
14947.175515; 0.000044
14955.507274; 0.000026
14963.839033; 0.000067
14972.170792; 0.000087
14980.502551; 0.000059
14988.834309; 0.000209
14997.166068; 0.000163
15005.497827; 0.000130
15013.829586; 0.000352
15022.161345; 0.000263
15030.493104; 0.000693
15038.824863; 0.001596
15047.156622; 0.000920
15055.488381; 0.000092
15063.820140; 0.000306
15072.151899; 0.000192
15080.483658; 0.000106
15088.815417; 0.000172
15097.147176; 0.000075
15105.478934; 0.000059
15113.810693; 0.000077
15122.142452; 0.000021
15130.474211; 0.000017
15138.805970; 0.000046
15147.137729; 0.000040
15155.469488; 0.000037
15163.801247; 0.000058
15172.133006; 0.000018
15180.464765; 0.000042
15188.796524; 0.000052
15197.128283; 0.000028
15205.460042; 0.000101
15213.791800; 0.000406
15222.123559; 0.000358
15230.455318; 0.000061
15238.787077; 0.000020
15247.118836; 0.000009
15255.450595; 0.000086
15263.782354; 0.000155
15272.114113; 0.000063
15280.445872; 0.000047
15288.777631; 0.000130
15297.109390; 0.000086
15305.441149; 0.000030
15313.772908; 0.000055
15322.104667; 0.000020
15330.436425; 0.000013
15338.768184; 0.000010
15347.099943; 0.000030
15355.431702; 0.000027
15363.763461; 0.000026
15372.095220; 0.000051
15380.426979; 0.000031
15388.758738; 0.000063
15397.090497; 0.000055
15405.422256; 0.000035
15413.754015; 0.000265
15422.085774; 0.000325
15430.417533; 0.000232
15438.749292; 0.000516
15447.081050; 0.000374
15455.412809; 0.000076
15463.744568; 0.000173
15472.076327; 0.000111
15480.408086; 0.000041
15488.739845; 0.000064
15497.071604; 0.000019
15505.403363; 0.000022
15513.735122; 0.000048
15522.066881; 0.000016
15530.398640; 0.000008
15538.730399; 0.000001
15547.062158; 0.000012
15555.393916; 0.000037
15563.725675; 0.000037
15572.057434; 0.000017
15580.389193; 0.000023
15588.720952; 0.000007
15597.052711; 0.000012
15605.384470; 0.000131
15613.716229; 0.001412
15622.047988; 0.001999
15630.379747; 0.000736
15638.711506; 0.001669
15647.043265; 0.001975
15655.375024; 0.000513
15663.706783; 0.000361
15672.038541; 0.000299
15680.370300; 0.000070
15688.702059; 0.000038
15697.033818; 0.000077
15705.365577; 0.000025
15713.697336; 0.000033
15722.029095; 0.000029
15730.360854; 0.000013
15738.692613; 0.000040
15747.024372; 0.000055
15755.356131; 0.000033
15763.687890; 0.000012
15772.019649; 0.000031
15780.351408; 0.000018
15788.683166; 0.000004
15797.014925; 0.000008
15805.346684; 0.000021
15813.678443; 0.000262
15822.010202; 0.000338
15830.341961; 0.000152
15838.673720; 0.000818
15847.005479; 0.000962
15855.337238; 0.000253
15863.668997; 0.000322
15872.000756; 0.000309
15880.332515; 0.000066
15888.664274; 0.000090
15896.996032; 0.000091
15905.327791; 0.000018
15913.659550; 0.000019
15921.991309; 0.000011
15930.323068; 0.000027
15938.654827; 0.000019
15946.986586; 0.000032
15955.318345; 0.000031
15963.650104; 0.000006
15971.981863; 0.000043
15980.313622; 0.000051
15988.645381; 0.000009
15996.977140; 0.000080
16005.308899; 0.000070
16013.640657; 0.000019
16021.972416; 0.000015
16030.304175; 0.000043
16038.635934; 0.000352
16046.967693; 0.000542
16055.299452; 0.000224
16063.631211; 0.000104
16071.962970; 0.000081
16080.294729; 0.000020
16088.626488; 0.000038
16096.958247; 0.000048
16105.290006; 0.000022
16113.621765; 0.000014
16121.953524; 0.000029
16130.285282; 0.000020
16138.617041; 0.000020
16146.948800; 0.000019
16155.280559; 0.000031
16163.612318; 0.000018
16171.944077; 0.000049
16180.275836; 0.000052
16188.607595; 0.000097
16196.939354; 0.000377
16205.271113; 0.000349
16213.602872; 0.000435
16221.934631; 0.001274
16230.266390; 0.000896
16238.598148; 0.000686
16246.929907; 0.001617
16255.261666; 0.000961
16263.593425; 0.000077
16271.925184; 0.000054
16280.256943; 0.000021
16288.588702; 0.000012
16296.920461; 0.000040
16305.252220; 0.000030
16313.583979; 0.000017
16321.915738; 0.000025
16330.247497; 0.000003
16338.579256; 0.000008
16346.911015; 0.000013
16355.242773; 0.000027
16363.574532; 0.000015
16371.906291; 0.000024
16380.238050; 0.000010
16388.569809; 0.000046
16396.901568; 0.000133
16405.233327; 0.000107
16413.565086; 0.000016
16421.896845; 0.000044
16430.228604; 0.000087
16438.560363; 0.000870
16446.892122; 0.002041
16455.223881; 0.001200
16463.555640; 0.000066
16471.887398; 0.000162
16480.219157; 0.000083
16488.550916; 0.000017
16496.882675; 0.000050
16505.214434; 0.000038
16513.546193; 0.000034
16521.877952; 0.000062
16530.209711; 0.000038
16538.541470; 0.000012
16546.873229; 0.000022
16555.204988; 0.000008
16563.536747; 0.000013
16571.868506; 0.000027
16580.200265; 0.000046
16588.532023; 0.000027
16596.863782; 0.000026
16605.195541; 0.000037
16613.527300; 0.000063
16621.859059; 0.000200
16630.190818; 0.000187
16638.522577; 0.000105
16646.854336; 0.000237
16655.186095; 0.000116
16663.517854; 0.000009
16671.849613; 0.000014
16680.181372; 0.000008
16688.513131; 0.000024
16696.844889; 0.000067
16705.176648; 0.000047
16713.508407; 0.000028
16721.840166; 0.000035
16730.171925; 0.000024
16738.503684; 0.000037
16746.835443; 0.000015
16755.167202; 0.000032
16763.498961; 0.000015
16771.830720; 0.000053
16780.162479; 0.000116
16788.494238; 0.000049
16796.825997; 0.000153
16805.157756; 0.000223
16813.489514; 0.000241
16821.821273; 0.002715
16830.153032; 0.003785
16838.484791; 0.001265
16846.816550; 0.000111
16855.148309; 0.000072
16863.480068; 0.000023
16871.811827; 0.000181
16880.143586; 0.000175
16888.475345; 0.000046
16896.807104; 0.000055
16905.138863; 0.000075
16913.470622; 0.000024
16921.802381; 0.000049
16930.134139; 0.000040
16938.465898; 0.000014
16946.797657; 0.000047
16955.129416; 0.000066
16963.461175; 0.000027
16971.792934; 0.000066
16980.124693; 0.000114
16988.456452; 0.000062
16996.788211; 0.000130
17005.119970; 0.000249
17013.451729; 0.000148
17021.783488; 0.000667
17030.115247; 0.001017
17038.447005; 0.000453
17046.778764; 0.001007
17055.110523; 0.001168
17063.442282; 0.000297
17071.774041; 0.000112
17080.105800; 0.000127
17088.437559; 0.000041
17096.769318; 0.000134
17105.101077; 0.000117
17113.432836; 0.000030
17121.764595; 0.000043
17130.096354; 0.000031
17138.428113; 0.000026
17146.759872; 0.000034
17155.091630; 0.000025
17163.423389; 0.000039
17171.755148; 0.000014
17180.086907; 0.000020
17188.418666; 0.000022
17196.750425; 0.000014
17205.082184; 0.000144
17213.413943; 0.000147
17221.745702; 0.000023
17230.077461; 0.000028
17238.409220; 0.000035
17246.740979; 0.000201
17255.072738; 0.000187
17263.404497; 0.000007
17271.736255; 0.000067
17280.068014; 0.000044
17288.399773; 0.000018
17296.731532; 0.000005
17305.063291; 0.000010
17313.395050; 0.000009
17321.726809; 0.000033
17330.058568; 0.000022
17338.390327; 0.000020
17346.722086; 0.000007
17355.053845; 0.000010
17363.385604; 0.000022
17371.717363; 0.000017
17380.049121; 0.000041
17388.380880; 0.000036
17396.712639; 0.000066
17405.044398; 0.000200
17413.376157; 0.000126
17421.707916; 0.000190
17430.039675; 0.000429
17438.371434; 0.000248
17446.703193; 0.000279
17455.034952; 0.000771
17463.366711; 0.000484
17471.698470; 0.000063
17480.030229; 0.000155
17488.361988; 0.000100
17496.693746; 0.000037
17505.025505; 0.000076
17513.357264; 0.000038
17521.689023; 0.000004
17530.020782; 0.000028
17538.352541; 0.000028
17546.684300; 0.000030
17555.016059; 0.000050
17563.347818; 0.000025
17571.679577; 0.000005
17580.011336; 0.000050
17588.343095; 0.000066
17596.674854; 0.000012
17605.006613; 0.000107
17613.338371; 0.000164
17621.670130; 0.000147
17630.001889; 0.000414
17638.333648; 0.000252
17646.665407; 0.000234
17654.997166; 0.000579
17663.328925; 0.000327
17671.660684; 0.000118
17679.992443; 0.000243
17688.324202; 0.000123
17696.655961; 0.000010
17704.987720; 0.000024
17713.319479; 0.000021
17721.651237; 0.000020
17729.982996; 0.000023
17738.314755; 0.000019
17746.646514; 0.000006
17754.978273; 0.000015
17763.310032; 0.000011
17771.641791; 0.000013
17779.973550; 0.000018
17788.305309; 0.000045
17796.637068; 0.000024
17804.968827; 0.000114
17813.300586; 0.000172
17821.632345; 0.000093
17829.964104; 0.000349
17838.295862; 0.000321
17846.627621; 0.000174
17854.959380; 0.000433
17863.291139; 0.000303
17871.622898; 0.000061
17879.954657; 0.000107
17888.286416; 0.000061
17896.618175; 0.000030
17904.949934; 0.000078
17913.281693; 0.000048
17921.613452; 0.000015
17929.945211; 0.000011
17938.276970; 0.000039
17946.608729; 0.000044
17954.940487; 0.000018
17963.272246; 0.000050
17971.604005; 0.000033
17979.935764; 0.000057
17988.267523; 0.000168
17996.599282; 0.000075
18004.931041; 0.000382
18013.262800; 0.000634
18021.594559; 0.000622
18029.926318; 0.005358
18038.258077; 0.007252
18046.589836; 0.002299
18054.921595; 0.000671
18063.253353; 0.000666
18071.585112; 0.000169
18079.916871; 0.000077
18088.248630; 0.000069
18096.580389; 0.000041
18104.912148; 0.000042
18113.243907; 0.000012
18121.575666; 0.000007
18129.907425; 0.000006
18138.239184; 0.000017
18146.570943; 0.000017
18154.902702; 0.000001
18163.234461; 0.000014
18171.566220; 0.000017
18179.897978; 0.000027
18188.229737; 0.000076
18196.561496; 0.000045
18204.893255; 0.000151
18213.225014; 0.000195
18221.556773; 0.000102
18229.888532; 0.001166
18238.220291; 0.001613
18246.552050; 0.000544
18254.883809; 0.000742
18263.215568; 0.000891
18271.547327; 0.000233
18279.879086; 0.000029
18288.210845; 0.000006
18296.542603; 0.000011
18304.874362; 0.000051
18313.206121; 0.000064
18321.537880; 0.000030
18329.869639; 0.000030
18338.201398; 0.000040
18346.533157; 0.000013
18354.864916; 0.000020
18363.196675; 0.000013
18371.528434; 0.000015
18379.860193; 0.000005
18388.191952; 0.000017
18396.523711; 0.000016
18404.855469; 0.000018
18413.187228; 0.000075
18421.518987; 0.000065
18429.850746; 0.000176
18438.182505; 0.000478
18446.514264; 0.000335
18454.846023; 0.000295
18463.177782; 0.000356
18471.509541; 0.000111
18479.841300; 0.000036
18488.173059; 0.000025
18496.504818; 0.000003
18504.836577; 0.000026
18513.168336; 0.000028
18521.500094; 0.000021
18529.831853; 0.000038
18538.163612; 0.000022
18546.495371; 0.000042
18554.827130; 0.000018
18563.158889; 0.000052
18571.490648; 0.000066
18579.822407; 0.000033
18588.154166; 0.000138
18596.485925; 0.000092
18604.817684; 0.000045
18613.149443; 0.000089
18621.481202; 0.000230
18629.812961; 0.003207
18638.144719; 0.009226
18646.476478; 0.006376
18654.808237; 0.000505
18663.139996; 0.000195
18671.471755; 0.000063
18679.803514; 0.000076
18688.135273; 0.000116
18696.467032; 0.000069
18704.798791; 0.000058
18713.130550; 0.000088
18721.462309; 0.000041
18729.794068; 0.000007
18738.125827; 0.000038
18746.457585; 0.000030
18754.789344; 0.000029
18763.121103; 0.000053
18771.452862; 0.000029
18779.784621; 0.000021
18788.116380; 0.000097
18796.448139; 0.000111
18804.779898; 0.000065
18813.111657; 0.000257
18821.443416; 0.000231
18829.775175; 0.000386
18838.106934; 0.000987
18846.438693; 0.000623
18854.770452; 0.000150
18863.102210; 0.000338
18871.433969; 0.000176
18879.765728; 0.000105
18888.097487; 0.000203
18896.429246; 0.000089
18904.761005; 0.000043
18913.092764; 0.000085
18921.424523; 0.000052
18929.756282; 0.000012
18938.088041; 0.000022
18946.419800; 0.000010
18954.751559; 0.000022
18963.083318; 0.000014
18971.415077; 0.000028
18979.746835; 0.000027
18988.078594; 0.000021
18996.410353; 0.000077
19004.742112; 0.000055
19013.073871; 0.000244
19021.405630; 0.000327
19029.737389; 0.000099
19038.069148; 0.000087
19046.400907; 0.000229
19054.732666; 0.000180
19063.064425; 0.000135
19071.396184; 0.000040
19079.727943; 0.000044
19088.059701; 0.000119
19096.391460; 0.000087
19104.723219; 0.000054
19113.054978; 0.000069
19121.386737; 0.000023
19129.718496; 0.000011
19138.050255; 0.000007
19146.382014; 0.000003
19154.713773; 0.000005
19163.045532; 0.000010
19171.377291; 0.000011
19179.709050; 0.000010
19188.040809; 0.000007
19196.372568; 0.000034
19204.704326; 0.000046
19213.036085; 0.000483
19221.367844; 0.000735
19229.699603; 0.000354
19238.031362; 0.002502
19246.363121; 0.003416
19254.694880; 0.001090
19263.026639; 0.000277
19271.358398; 0.000356
19279.690157; 0.000105
19288.021916; 0.000169
19296.353675; 0.000138
19304.685434; 0.000035
19313.017193; 0.000078
19321.348951; 0.000061
19329.680710; 0.000017
19338.012469; 0.000038
19346.344228; 0.000054
19354.675987; 0.000025
19363.007746; 0.000048
19371.339505; 0.000053
19379.671264; 0.000010
19388.003023; 0.000044
19396.334782; 0.000028
19404.666541; 0.000026
19412.998300; 0.000073
19421.330059; 0.000124
19429.661817; 0.000385
19437.993576; 0.003424
19446.325335; 0.004530
19454.657094; 0.001393
19462.988853; 0.000504
19471.320612; 0.000598
19479.652371; 0.000161
19487.984130; 0.000073
19496.315889; 0.000074
19504.647648; 0.000025
19512.979407; 0.000017
19521.311166; 0.000010
19529.642925; 0.000026
19537.974684; 0.000012
19546.306442; 0.000025
19554.638201; 0.000021
19562.969960; 0.000005
19571.301719; 0.000013
19579.633478; 0.000019
19587.965237; 0.000017
19596.296996; 0.000087
19604.628755; 0.000095
19612.960514; 0.000050
19621.292273; 0.000177
19629.624032; 0.000136
19637.955791; 0.000195
19646.287550; 0.000266
19654.619309; 0.000076
19662.951067; 0.000017
19671.282826; 0.000003
19679.614585; 0.000022
19687.946344; 0.000059
19696.278103; 0.000047
19704.609862; 0.000012
19712.941621; 0.000018
19721.273380; 0.000030
19729.605139; 0.000017
19737.936898; 0.000026
19746.268657; 0.000021
19754.600416; 0.000046
19762.932175; 0.000031
19771.263933; 0.000055
19779.595692; 0.000072
19787.927451; 0.000045
19796.259210; 0.000171
19804.590969; 0.000131
19812.922728; 0.000161
19821.254487; 0.000583
19829.586246; 0.000509
19837.918005; 0.001037
19846.249764; 0.002872
19854.581523; 0.001925
19862.913282; 0.000264
19871.245041; 0.000438
19879.576800; 0.000242
19887.908558; 0.000044
19896.240317; 0.000017
19904.572076; 0.000022
19912.903835; 0.000020
19921.235594; 0.000011
19929.567353; 0.000010
19937.899112; 0.000014
19946.230871; 0.000021
19954.562630; 0.000014
19962.894389; 0.000015
19971.226148; 0.000021
19979.557907; 0.000046
19987.889666; 0.000014
19996.221425; 0.000012
20004.553183; 0.000047
20012.884942; 0.000134
20021.216701; 0.000445
20029.548460; 0.000401
20037.880219; 0.002038
20046.211978; 0.005798
20054.543737; 0.003973
20062.875496; 0.000348
20071.207255; 0.000382
20079.539014; 0.000204
20087.870773; 0.000010
20096.202532; 0.000059
20104.534291; 0.000024
20112.866049; 0.000027
20121.197808; 0.000060
20129.529567; 0.000031
20137.861326; 0.000015
20146.193085; 0.000026
20154.524844; 0.000011
20162.856603; 0.000024
20171.188362; 0.000016
20179.520121; 0.000038
20187.851880; 0.000033
20196.183639; 0.000001
20204.515398; 0.000019
20212.847157; 0.000032
20221.178916; 0.000128
20229.510674; 0.000124
20237.842433; 0.000027
20246.174192; 0.000206
20254.505951; 0.000270
20262.837710; 0.000115
20271.169469; 0.000117
20279.501228; 0.000051
20287.832987; 0.000069
20296.164746; 0.000128
20304.496505; 0.000072
20312.828264; 0.000024
20321.160023; 0.000021
20329.491782; 0.000020
20337.823541; 0.000023
20346.155299; 0.000012
20354.487058; 0.000032
20362.818817; 0.000012
20371.150576; 0.000030
20379.482335; 0.000059
20387.814094; 0.000025
20396.145853; 0.000109
20404.477612; 0.000209
20412.809371; 0.000116
20421.141130; 0.000636
20429.472889; 0.000997
20437.804648; 0.000411
20446.136407; 0.001446
20454.468166; 0.001958
20462.799924; 0.000626
20471.131683; 0.000068
20479.463442; 0.000053
20487.795201; 0.000047
20496.126960; 0.000026
20504.458719; 0.000042
20512.790478; 0.000018
20521.122237; 0.000043
20529.453996; 0.000043
20537.785755; 0.000009
20546.117514; 0.000023
20554.449273; 0.000042
20562.781032; 0.000032
20571.112790; 0.000034
20579.444549; 0.000052
20587.776308; 0.000018
20596.108067; 0.000074
20604.439826; 0.000161
20612.771585; 0.000069
20621.103344; 0.000218
20629.435103; 0.000346
20637.766862; 0.000417
20646.098621; 0.003899
20654.430380; 0.005242
20662.762139; 0.001667
20671.093898; 0.000306
20679.425657; 0.000334
20687.757415; 0.000102
20696.089174; 0.000105
20704.420933; 0.000119
20712.752692; 0.000026
20721.084451; 0.000071
20729.416210; 0.000065
20737.747969; 0.000016
20746.079728; 0.000033
20754.411487; 0.000014
20762.743246; 0.000022
20771.075005; 0.000018
20779.406764; 0.000040
20787.738523; 0.000040
20796.070282; 0.000040
20804.402040; 0.000115
20812.733799; 0.000074
20821.065558; 0.000050
20829.397317; 0.000209
20837.729076; 0.000165
20846.060835; 0.000172
20854.392594; 0.000172
20862.724353; 0.000034
20871.056112; 0.000135
20879.387871; 0.000184
20887.719630; 0.000060
20896.051389; 0.000020
20904.383148; 0.000041
20912.714906; 0.000018
20921.046665; 0.000027
20929.378424; 0.000025
20937.710183; 0.000007
20946.041942; 0.000006
20954.373701; 0.000009
20962.705460; 0.000004
20971.037219; 0.000005
20979.368978; 0.000018
20987.700737; 0.000009
20996.032496; 0.000024
21004.364255; 0.000143
21012.696014; 0.000160
21021.027773; 0.000298
21029.359531; 0.001038
21037.691290; 0.000797
21046.023049; 0.000600
21054.354808; 0.001478
21062.686567; 0.000913
21071.018326; 0.000107
21079.350085; 0.000267
21087.681844; 0.000156
21096.013603; 0.000042
21104.345362; 0.000094
21112.677121; 0.000050
21121.008880; 0.000018
21129.340639; 0.000047
21137.672398; 0.000037
21146.004156; 0.000030
21154.335915; 0.000057
21162.667674; 0.000036
21170.999433; 0.000024
21179.331192; 0.000101
21187.662951; 0.000120
21195.994710; 0.000045
21204.326469; 0.000171
21212.658228; 0.000161
21220.989987; 0.000083
21229.321746; 0.000272
21237.653505; 0.000231
21245.985264; 0.001482
21254.317022; 0.004105
21262.648781; 0.002754
21270.980540; 0.000276
21279.312299; 0.000401
21287.644058; 0.000224
21295.975817; 0.000041
21304.307576; 0.000072
21312.639335; 0.000027
21320.971094; 0.000006
21329.302853; 0.000009
21337.634612; 0.000016
21345.966371; 0.000013
21354.298130; 0.000003
21362.629889; 0.000003
21370.961647; 0.000006
21379.293406; 0.000009
21387.625165; 0.000030
21395.956924; 0.000018
21404.288683; 0.000017
21412.620442; 0.000071
21420.952201; 0.000046
21429.283960; 0.000168
21437.615719; 0.000308
21445.947478; 0.000188
21454.279237; 0.000573
21462.610996; 0.000447
21470.942755; 0.000074
21479.274514; 0.000028
21487.606272; 0.000011
21495.938031; 0.000017
21504.269790; 0.000055
21512.601549; 0.000032
21520.933308; 0.000005
21529.265067; 0.000002
21537.596826; 0.000011
21545.928585; 0.000017
21554.260344; 0.000014
21562.592103; 0.000033
21570.923862; 0.000012
21579.255621; 0.000041
21587.587380; 0.000084
21595.919138; 0.000034
21604.250897; 0.000190
21612.582656; 0.000305
21620.914415; 0.000134
21629.246174; 0.001062
21637.577933; 0.001598
21645.909692; 0.000572
21654.241451; 0.000449
21662.573210; 0.000520
21670.904969; 0.000153
21679.236728; 0.000127
21687.568487; 0.000169
21695.900246; 0.000048
21704.232005; 0.000075
21712.563763; 0.000068
21720.895522; 0.000010
21729.227281; 0.000009
21737.559040; 0.000020
21745.890799; 0.000016
21754.222558; 0.000015
21762.554317; 0.000014
21770.886076; 0.000001
21779.217835; 0.000005
21787.549594; 0.000015
21795.881353; 0.000023
21804.213112; 0.000018
21812.544871; 0.000075
21820.876630; 0.000074
21829.208388; 0.000560
21837.540147; 0.000876
21845.871906; 0.000333
21854.203665; 0.000891
21862.535424; 0.001128
21870.867183; 0.000323
21879.198942; 0.000078
21887.530701; 0.000078
21895.862460; 0.000032
21904.194219; 0.000106
21912.525978; 0.000073
21920.857737; 0.000019
21929.189496; 0.000061
21937.521254; 0.000049
21945.853013; 0.000021
21954.184772; 0.000044
21962.516531; 0.000020
21970.848290; 0.000031
21979.180049; 0.000032
21987.511808; 0.000054
21995.843567; 0.000035
22004.175326; 0.000063
22012.507085; 0.000212
22020.838844; 0.000177
22029.170603; 0.000217
22037.502362; 0.000550
22045.834121; 0.000368
